Data from HDX013801__5__12-13-50-703.txt Node

Date: Tue Sep 20 12:13:50 CEST 2022
User: Mapthz02
Spectrometer: HDX01380
Trigger mode: 0
Integration Time (sec): 4,000000E-2
Scans to average: 1
Nonlinearity correction enabled: false
Boxcar width: 0
Storing dark spectrum: false
XAxis mode: Wavelengths
Number of Pixels in Spectrum: 2068
>>>>>Begin Spectral Data<<<<<
193,877	1942
194,251	1256
194,625	1338
194,999	1325
195,373	1373
195,747	1396
196,121	1399
196,495	1414
196,869	1387
197,242	1395
197,616	1397
197,989	1390
198,362	1396
198,736	1413
199,109	1385
199,482	1393
199,855	1391
200,228	1404
200,601	1394
200,973	1384
201,346	1394
201,719	1410
202,091	1412
202,463	1412
202,836	1400
203,208	1402
203,58	1393
203,952	1397
204,324	1397
204,696	1390
205,068	1416
205,439	1404
205,811	1404
206,182	1394
206,554	1406
206,925	1396
207,296	1412
207,668	1406
208,039	1404
208,41	1400
208,781	1409
209,151	1397
209,522	1414
209,893	1412
210,263	1405
210,634	1436
211,004	1394
211,375	1404
211,745	1411
212,115	1400
212,485	1432
212,855	1399
213,225	1425
213,595	1395
213,964	1411
214,334	1388
214,703	1415
215,073	1396
215,442	1406
215,811	1405
216,181	1397
216,55	1400
216,919	1396
217,288	1397
217,657	1391
218,025	1409
218,394	1406
218,763	1393
219,131	1411
219,499	1397
219,868	1411
220,236	1424
220,604	1406
220,972	1397
221,34	1405
221,708	1403
222,076	1406
222,444	1396
222,811	1399
223,179	1389
223,546	1418
223,914	1401
224,281	1418
224,648	1406
225,015	1383
225,382	1412
225,749	1404
226,116	1397
226,483	1407
226,85	1405
227,216	1406
227,583	1399
227,949	1396
228,315	1399
228,682	1388
229,048	1408
229,414	1397
229,78	1419
230,146	1396
230,512	1405
230,877	1398
231,243	1391
231,609	1423
231,974	1388
232,34	1401
232,705	1395
233,07	1398
233,435	1404
233,8	1401
234,165	1404
234,53	1393
234,895	1410
235,26	1397
235,624	1399
235,989	1400
236,353	1389
236,718	1393
237,082	1401
237,446	1393
237,81	1382
238,175	1401
238,538	1398
238,902	1389
239,266	1389
239,63	1410
239,993	1422
240,357	1399
240,72	1403
241,084	1401
241,447	1400
241,81	1395
242,173	1403
242,536	1405
242,899	1415
243,262	1399
243,625	1407
243,988	1397
244,35	1391
244,713	1400
245,075	1411
245,438	1396
245,8	1397
246,162	1419
246,524	1409
246,886	1395
247,248	1405
247,61	1396
247,972	1412
248,333	1418
248,695	1396
249,056	1399
249,418	1410
249,779	1410
250,14	1403
250,502	1404
250,863	1398
251,224	1398
251,585	1412
251,945	1404
252,306	1397
252,667	1398
253,027	1424
253,388	1403
253,748	1401
254,109	1391
254,469	1402
254,829	1389
255,189	1397
255,549	1417
255,909	1412
256,269	1395
256,628	1414
256,988	1429
257,348	1404
257,707	1413
258,066	1402
258,426	1427
258,785	1408
259,144	1432
259,503	1404
259,862	1405
260,221	1400
260,58	1411
260,939	1403
261,297	1384
261,656	1397
262,014	1399
262,373	1393
262,731	1416
263,089	1407
263,447	1397
263,805	1428
264,163	1406
264,521	1401
264,879	1384
265,237	1406
265,594	1401
265,952	1410
266,309	1380
266,667	1404
267,024	1389
267,381	1396
267,738	1404
268,095	1391
268,452	1412
268,809	1392
269,166	1416
269,523	1404
269,879	1384
270,236	1402
270,592	1408
270,949	1400
271,305	1412
271,661	1393
272,017	1397
272,373	1395
272,729	1400
273,085	1396
273,441	1391
273,797	1402
274,152	1403
274,508	1399
274,863	1395
275,219	1388
275,574	1403
275,929	1389
276,284	1396
276,639	1396
276,994	1403
277,349	1396
277,704	1394
278,059	1423
278,413	1406
278,768	1395
279,122	1397
279,477	1408
279,831	1388
280,185	1411
280,539	1410
280,893	1403
281,247	1392
281,601	1385
281,955	1398
282,309	1414
282,662	1423
283,016	1402
283,369	1403
283,723	1400
284,076	1409
284,429	1391
284,782	1406
285,135	1416
285,488	1404
285,841	1385
286,194	1410
286,547	1399
286,899	1407
287,252	1397
287,605	1399
287,957	1406
288,309	1409
288,661	1386
289,014	1401
289,366	1414
289,718	1421
290,07	1407
290,421	1402
290,773	1402
291,125	1396
291,476	1399
291,828	1423
292,179	1397
292,53	1409
292,882	1403
293,233	1414
293,584	1387
293,935	1401
294,286	1405
294,637	1411
294,987	1416
295,338	1411
295,689	1405
296,039	1405
296,39	1399
296,74	1429
297,09	1386
297,44	1418
297,79	1398
298,14	1425
298,49	1410
298,84	1415
299,19	1413
299,54	1432
299,889	1428
300,239	1432
300,588	1433
300,937	1443
301,287	1422
301,636	1435
301,985	1416
302,334	1432
302,683	1412
303,032	1444
303,381	1419
303,729	1428
304,078	1435
304,426	1447
304,775	1443
305,123	1444
305,472	1450
305,82	1440
306,168	1413
306,516	1412
306,864	1415
307,212	1424
307,56	1415
307,907	1438
308,255	1427
308,602	1419
308,95	1450
309,297	1419
309,645	1427
309,992	1440
310,339	1431
310,686	1414
311,033	1416
311,38	1405
311,727	1427
312,073	1423
312,42	1421
312,767	1408
313,113	1426
313,46	1421
313,806	1421
314,152	1403
314,498	1416
314,844	1411
315,19	1410
315,536	1397
315,882	1404
316,228	1411
316,574	1414
316,919	1400
317,265	1394
317,61	1409
317,955	1426
318,301	1390
318,646	1407
318,991	1418
319,336	1390
319,681	1396
320,026	1417
320,371	1392
320,715	1401
321,06	1408
321,405	1397
321,749	1412
322,093	1404
322,438	1398
322,782	1413
323,126	1412
323,47	1402
323,814	1403
324,158	1392
324,502	1402
324,846	1394
325,189	1392
325,533	1375
325,876	1408
326,22	1404
326,563	1391
326,906	1412
327,25	1397
327,593	1426
327,936	1416
328,279	1408
328,621	1393
328,964	1400
329,307	1401
329,649	1413
329,992	1402
330,334	1394
330,677	1391
331,019	1406
331,361	1403
331,703	1402
332,045	1426
332,387	1411
332,729	1387
333,071	1402
333,413	1386
333,755	1411
334,096	1403
334,438	1411
334,779	1387
335,12	1402
335,462	1409
335,803	1402
336,144	1408
336,485	1409
336,826	1429
337,167	1409
337,507	1391
337,848	1398
338,189	1415
338,529	1420
338,87	1395
339,21	1426
339,55	1406
339,89	1398
340,231	1419
340,571	1400
340,911	1406
341,25	1400
341,59	1403
341,93	1419
342,27	1395
342,609	1393
342,949	1390
343,288	1394
343,627	1410
343,967	1400
344,306	1403
344,645	1387
344,984	1399
345,323	1392
345,662	1405
346	1413
346,339	1410
346,678	1386
347,016	1393
347,355	1403
347,693	1406
348,031	1389
348,37	1382
348,708	1404
349,046	1397
349,384	1392
349,722	1409
350,06	1394
350,397	1413
350,735	1388
351,073	1415
351,41	1393
351,747	1410
352,085	1414
352,422	1403
352,759	1386
353,096	1405
353,433	1414
353,77	1393
354,107	1418
354,444	1412
354,781	1399
355,117	1398
355,454	1405
355,79	1392
356,127	1407
356,463	1426
356,799	1391
357,135	1396
357,471	1375
357,807	1398
358,143	1406
358,479	1392
358,815	1412
359,151	1402
359,486	1417
359,822	1391
360,157	1402
360,493	1413
360,828	1405
361,163	1385
361,498	1397
361,833	1416
362,168	1406
362,503	1400
362,838	1405
363,173	1403
363,507	1402
363,842	1402
364,176	1407
364,511	1415
364,845	1425
365,179	1418
365,514	1401
365,848	1416
366,182	1431
366,516	1417
366,85	1415
367,183	1415
367,517	1418
367,851	1437
368,184	1432
368,518	1428
368,851	1425
369,184	1449
369,518	1430
369,851	1417
370,184	1428
370,517	1418
370,85	1423
371,183	1431
371,516	1424
371,848	1451
372,181	1464
372,513	1476
372,846	1483
373,178	1509
373,511	1538
373,843	1595
374,175	1623
374,507	1676
374,839	1685
375,171	1656
375,503	1637
375,835	1547
376,166	1544
376,498	1469
376,829	1449
377,161	1443
377,492	1481
377,823	1485
378,155	1519
378,486	1550
378,817	1564
379,148	1552
379,479	1536
379,81	1524
380,14	1518
380,471	1502
380,802	1492
381,132	1480
381,463	1497
381,793	1497
382,123	1497
382,453	1501
382,784	1529
383,114	1530
383,444	1523
383,773	1530
384,103	1553
384,433	1540
384,763	1536
385,092	1539
385,422	1551
385,751	1568
386,081	1552
386,41	1542
386,739	1574
387,068	1559
387,397	1559
387,726	1562
388,055	1560
388,384	1542
388,713	1542
389,041	1540
389,37	1560
389,698	1579
390,027	1574
390,355	1582
390,683	1602
391,012	1590
391,34	1619
391,668	1630
391,996	1618
392,324	1623
392,651	1644
392,979	1662
393,307	1633
393,634	1662
393,962	1668
394,289	1687
394,617	1718
394,944	1762
395,271	1783
395,598	1772
395,925	1841
396,252	1825
396,579	1779
396,906	1817
397,233	1801
397,559	1826
397,886	1807
398,212	1816
398,539	1805
398,865	1816
399,191	1825
399,518	1836
399,844	1838
400,17	1867
400,496	1875
400,822	1873
401,147	1878
401,473	1887
401,799	1866
402,124	1862
402,45	1841
402,775	1855
403,101	1828
403,426	1835
403,751	1818
404,076	1798
404,401	1777
404,726	1811
405,051	1795
405,376	1802
405,701	1824
406,025	1846
406,35	1845
406,674	1835
406,999	1828
407,323	1855
407,647	1860
407,972	1856
408,296	1831
408,62	1835
408,944	1830
409,268	1812
409,592	1822
409,915	1815
410,239	1822
410,563	1797
410,886	1841
411,21	1852
411,533	1846
411,856	1868
412,179	1884
412,503	1870
412,826	1883
413,149	1856
413,472	1887
413,794	1880
414,117	1848
414,44	1876
414,762	1835
415,085	1837
415,407	1793
415,73	1842
416,052	1847
416,374	1836
416,697	1854
417,019	1889
417,341	1877
417,663	1868
417,984	1862
418,306	1852
418,628	1874
418,95	1866
419,271	1873
419,593	1898
419,914	1860
420,235	1851
420,557	1853
420,878	1846
421,199	1845
421,52	1836
421,841	1868
422,162	1853
422,482	1859
422,803	1872
423,124	1842
423,444	1856
423,765	1858
424,085	1858
424,406	1847
424,726	1841
425,046	1830
425,366	1847
425,686	1821
426,006	1850
426,326	1855
426,646	1867
426,966	1844
427,285	1882
427,605	1881
427,924	1924
428,244	1896
428,563	1881
428,883	1897
429,202	1886
429,521	1879
429,84	1889
430,159	1848
430,478	1870
430,797	1888
431,115	1889
431,434	1868
431,753	1864
432,071	1863
432,39	1874
432,708	1890
433,026	1879
433,345	1891
433,663	1876
433,981	1913
434,299	1912
434,617	1901
434,935	1881
435,253	1906
435,57	1858
435,888	1848
436,206	1850
436,523	1812
436,84	1869
437,158	1853
437,475	1884
437,792	1874
438,109	1897
438,426	1918
438,743	1881
439,06	1896
439,377	1940
439,694	1891
440,011	1895
440,327	1896
440,644	1912
440,96	1874
441,277	1874
441,593	1845
441,909	1870
442,225	1852
442,541	1874
442,857	1841
443,173	1825
443,489	1836
443,805	1876
444,121	1884
444,436	1888
444,752	1883
445,067	1878
445,383	1910
445,698	1914
446,013	1923
446,329	1933
446,644	1903
446,959	1915
447,274	1918
447,589	1881
447,903	1881
448,218	1893
448,533	1879
448,847	1871
449,162	1870
449,476	1899
449,791	1931
450,105	2028
450,419	2092
450,733	2038
451,048	1946
451,362	1975
451,675	1975
451,989	1993
452,303	2040
452,617	2081
452,93	2029
453,244	2018
453,558	1959
453,871	1979
454,184	1962
454,498	1968
454,811	1981
455,124	1948
455,437	1951
455,75	1935
456,063	1905
456,376	1943
456,688	1980
457,001	1985
457,314	1979
457,626	2017
457,939	2004
458,251	1991
458,563	2038
458,876	2057
459,188	2056
459,5	2033
459,812	2011
460,124	2039
460,436	2021
460,748	2031
461,059	1991
461,371	2024
461,683	2014
461,994	2055
462,306	2004
462,617	2072
462,928	2098
463,239	2083
463,551	2031
463,862	2093
464,173	2049
464,484	2052
464,794	2065
465,105	2011
465,416	2072
465,727	2051
466,037	2031
466,348	2043
466,658	2085
466,968	2152
467,279	2237
467,589	2306
467,899	2353
468,209	2306
468,519	2279
468,829	2193
469,139	2107
469,448	2073
469,758	2051
470,068	2018
470,377	2012
470,687	2002
470,996	2003
471,306	1998
471,615	1980
471,924	1992
472,233	1974
472,542	1977
472,851	2011
473,16	2077
473,469	2223
473,778	2217
474,086	2125
474,395	2021
474,703	1985
475,012	1936
475,32	1909
475,629	1913
475,937	1890
476,245	1889
476,553	1877
476,861	1871
477,169	1879
477,477	1836
477,785	1845
478,092	1857
478,4	1833
478,708	1876
479,015	1865
479,323	1869
479,63	1902
479,937	1894
480,245	1919
480,552	1933
480,859	1988
481,166	1985
481,473	1985
481,78	2009
482,086	1948
482,393	1980
482,7	1896
483,006	1964
483,313	1932
483,619	1930
483,926	1901
484,232	1895
484,538	1880
484,844	1857
485,15	1869
485,456	1867
485,762	1833
486,068	1849
486,374	1881
486,68	1857
486,985	1862
487,291	1892
487,596	1903
487,902	1864
488,207	1857
488,512	1878
488,818	1884
489,123	1877
489,428	1889
489,733	1893
490,038	1883
490,343	1854
490,648	1853
490,952	1864
491,257	1847
491,561	1863
491,866	1912
492,17	1925
492,475	1934
492,779	1926
493,083	1905
493,387	1859
493,691	1883
493,995	1823
494,299	1853
494,603	1821
494,907	1796
495,211	1817
495,514	1806
495,818	1822
496,122	1827
496,425	1789
496,728	1810
497,032	1814
497,335	1817
497,638	1809
497,941	1808
498,244	1804
498,547	1776
498,85	1796
499,153	1788
499,455	1762
499,758	1781
500,061	1790
500,363	1797
500,666	1772
500,968	1767
501,27	1784
501,572	1776
501,875	1781
502,177	1786
502,479	1802
502,781	1780
503,083	1783
503,384	1807
503,686	1817
503,988	1799
504,289	1799
504,591	1805
504,892	1801
505,194	1814
505,495	1789
505,796	1784
506,097	1778
506,398	1750
506,699	1768
507	1776
507,301	1743
507,602	1761
507,903	1761
508,204	1723
508,504	1742
508,805	1723
509,105	1728
509,406	1741
509,706	1741
510,006	1730
510,306	1752
510,606	1747
510,906	1758
511,206	1747
511,506	1777
511,806	1752
512,106	1785
512,406	1803
512,705	1781
513,005	1783
513,304	1808
513,604	1795
513,903	1805
514,202	1816
514,501	1781
514,801	1801
515,1	1776
515,399	1795
515,698	1770
515,996	1782
516,295	1759
516,594	1762
516,893	1728
517,191	1736
517,49	1758
517,788	1738
518,086	1740
518,385	1778
518,683	1763
518,981	1744
519,279	1762
519,577	1747
519,875	1765
520,173	1759
520,471	1757
520,768	1786
521,066	1769
521,364	1760
521,661	1766
521,959	1757
522,256	1751
522,553	1752
522,851	1744
523,148	1719
523,445	1732
523,742	1700
524,039	1695
524,336	1660
524,633	1671
524,929	1629
525,226	1648
525,523	1608
525,819	1650
526,116	1620
526,412	1606
526,709	1601
527,005	1583
527,301	1588
527,597	1570
527,893	1558
528,189	1585
528,485	1584
528,781	1561
529,077	1597
529,372	1592
529,668	1605
529,964	1599
530,259	1581
530,555	1602
530,85	1616
531,145	1627
531,441	1601
531,736	1617
532,031	1611
532,326	1611
532,621	1608
532,916	1625
533,211	1632
533,505	1607
533,8	1632
534,095	1606
534,389	1618
534,684	1625
534,978	1656
535,272	1609
535,567	1613
535,861	1627
536,155	1623
536,449	1623
536,743	1623
537,037	1607
537,331	1636
537,625	1637
537,918	1690
538,212	1636
538,506	1649
538,799	1658
539,093	1686
539,386	1666
539,679	1680
539,972	1656
540,266	1689
540,559	1686
540,852	1712
541,145	1704
541,438	1682
541,73	1711
542,023	1704
542,316	1688
542,609	1701
542,901	1665
543,194	1699
543,486	1690
543,778	1686
544,071	1707
544,363	1676
544,655	1689
544,947	1701
545,239	1677
545,531	1695
545,823	1698
546,115	1699
546,406	1703
546,698	1721
546,99	1737
547,281	1769
547,573	1767
547,864	1787
548,155	1791
548,447	1816
548,738	1856
549,029	1865
549,32	1882
549,611	1904
549,902	1906
550,193	1943
550,484	1983
550,774	1992
551,065	2035
551,356	2062
551,646	2048
551,937	2039
552,227	2077
552,517	2078
552,808	2091
553,098	2080
553,388	2039
553,678	2106
553,968	2079
554,258	2036
554,548	2040
554,837	2038
555,127	1996
555,417	1979
555,706	1967
555,996	1962
556,285	1966
556,575	1946
556,864	1899
557,153	1902
557,442	1853
557,731	1879
558,02	1849
558,309	1831
558,598	1833
558,887	1797
559,176	1795
559,465	1763
559,753	1791
560,042	1729
560,33	1724
560,619	1735
560,907	1749
561,195	1735
561,483	1733
561,772	1752
562,06	1704
562,348	1695
562,636	1704
562,924	1706
563,211	1689
563,499	1718
563,787	1702
564,074	1701
564,362	1723
564,65	1697
564,937	1703
565,224	1674
565,512	1699
565,799	1698
566,086	1651
566,373	1635
566,66	1650
566,947	1632
567,234	1666
567,521	1649
567,807	1629
568,094	1624
568,381	1620
568,667	1602
568,954	1608
569,24	1601
569,527	1604
569,813	1576
570,099	1597
570,385	1578
570,671	1571
570,957	1576
571,243	1561
571,529	1578
571,815	1577
572,101	1578
572,386	1599
572,672	1588
572,957	1595
573,243	1597
573,528	1582
573,814	1578
574,099	1604
574,384	1589
574,669	1605
574,954	1571
575,239	1609
575,524	1571
575,809	1583
576,094	1591
576,379	1568
576,664	1586
576,948	1593
577,233	1581
577,517	1580
577,802	1557
578,086	1571
578,37	1568
578,655	1584
578,939	1573
579,223	1592
579,507	1558
579,791	1555
580,075	1563
580,359	1545
580,642	1571
580,926	1553
581,21	1541
581,493	1545
581,777	1545
582,06	1538
582,343	1552
582,627	1527
582,91	1541
583,193	1545
583,476	1562
583,759	1556
584,042	1543
584,325	1561
584,608	1556
584,891	1563
585,174	1558
585,456	1547
585,739	1558
586,021	1564
586,304	1566
586,586	1568
586,868	1562
587,151	1551
587,433	1559
587,715	1574
587,997	1550
588,279	1547
588,561	1549
588,843	1550
589,125	1558
589,406	1542
589,688	1557
589,97	1531
590,251	1557
590,533	1528
590,814	1546
591,095	1548
591,377	1538
591,658	1527
591,939	1539
592,22	1522
592,501	1526
592,782	1505
593,063	1536
593,344	1508
593,624	1506
593,905	1520
594,186	1512
594,466	1515
594,747	1502
595,027	1508
595,307	1502
595,588	1521
595,868	1510
596,148	1546
596,428	1535
596,708	1521
596,988	1497
597,268	1528
597,548	1503
597,828	1525
598,107	1507
598,387	1545
598,667	1531
598,946	1529
599,226	1514
599,505	1514
599,784	1502
600,064	1509
600,343	1499
600,622	1480
600,901	1513
601,18	1494
601,459	1506
601,738	1497
602,017	1478
602,295	1497
602,574	1505
602,853	1535
603,131	1493
603,41	1493
603,688	1520
603,966	1494
604,245	1509
604,523	1485
604,801	1497
605,079	1503
605,357	1510
605,635	1517
605,913	1521
606,191	1501
606,469	1492
606,746	1512
607,024	1518
607,302	1493
607,579	1503
607,856	1499
608,134	1478
608,411	1508
608,688	1514
608,966	1514
609,243	1509
609,52	1512
609,797	1528
610,074	1526
610,351	1510
610,627	1497
610,904	1509
611,181	1514
611,457	1533
611,734	1545
612,011	1524
612,287	1525
612,563	1524
612,84	1534
613,116	1500
613,392	1510
613,668	1512
613,944	1510
614,22	1507
614,496	1489
614,772	1504
615,048	1506
615,323	1526
615,599	1486
615,875	1499
616,15	1537
616,426	1499
616,701	1486
616,976	1491
617,252	1502
617,527	1484
617,802	1490
618,077	1482
618,352	1515
618,627	1494
618,902	1491
619,177	1494
619,452	1535
619,726	1497
620,001	1513
620,275	1500
620,55	1499
620,824	1508
621,099	1492
621,373	1501
621,647	1516
621,922	1493
622,196	1508
622,47	1501
622,744	1499
623,018	1503
623,292	1512
623,565	1497
623,839	1476
624,113	1524
624,387	1509
624,66	1524
624,934	1539
625,207	1499
625,48	1492
625,754	1501
626,027	1501
626,3	1492
626,573	1512
626,846	1485
627,119	1500
627,392	1497
627,665	1517
627,938	1504
628,211	1501
628,483	1477
628,756	1496
629,029	1500
629,301	1489
629,574	1489
629,846	1484
630,118	1477
630,39	1478
630,663	1475
630,935	1475
631,207	1486
631,479	1480
631,751	1501
632,023	1496
632,294	1472
632,566	1471
632,838	1495
633,109	1467
633,381	1498
633,652	1483
633,924	1493
634,195	1514
634,467	1482
634,738	1485
635,009	1498
635,28	1496
635,551	1486
635,822	1492
636,093	1499
636,364	1481
636,635	1505
636,906	1494
637,176	1505
637,447	1506
637,717	1511
637,988	1527
638,258	1515
638,529	1491
638,799	1495
639,069	1504
639,339	1493
639,61	1502
639,88	1502
640,15	1482
640,42	1520
640,689	1492
640,959	1507
641,229	1480
641,499	1491
641,768	1490
642,038	1502
642,307	1464
642,577	1507
642,846	1477
643,115	1478
643,385	1485
643,654	1468
643,923	1503
644,192	1456
644,461	1458
644,73	1499
644,999	1479
645,268	1465
645,536	1469
645,805	1468
646,074	1465
646,342	1465
646,611	1452
646,879	1476
647,148	1453
647,416	1463
647,684	1468
647,953	1485
648,221	1441
648,489	1464
648,757	1447
649,025	1455
649,293	1452
649,56	1453
649,828	1445
650,096	1470
650,364	1464
650,631	1444
650,899	1442
651,166	1435
651,434	1432
651,701	1439
651,968	1446
652,235	1440
652,503	1441
652,77	1414
653,037	1411
653,304	1415
653,571	1432
653,837	1440
654,104	1441
654,371	1416
654,638	1425
654,904	1421
655,171	1416
655,437	1412
655,704	1407
655,97	1425
656,236	1418
656,503	1431
656,769	1423
657,035	1422
657,301	1426
657,567	1425
657,833	1411
658,099	1427
658,365	1443
658,63	1422
658,896	1411
659,162	1425
659,427	1443
659,693	1425
659,958	1425
660,224	1439
660,489	1443
660,754	1455
661,019	1440
661,285	1427
661,55	1444
661,815	1419
662,08	1440
662,345	1429
662,609	1420
662,874	1453
663,139	1437
663,404	1422
663,668	1433
663,933	1448
664,197	1442
664,462	1429
664,726	1420
664,99	1448
665,255	1458
665,519	1455
665,783	1442
666,047	1426
666,311	1447
666,575	1463
666,839	1453
667,103	1443
667,366	1444
667,63	1457
667,894	1456
668,157	1446
668,421	1445
668,684	1436
668,948	1444
669,211	1440
669,474	1469
669,737	1449
670,001	1435
670,264	1443
670,527	1439
670,79	1456
671,053	1453
671,315	1438
671,578	1430
671,841	1444
672,104	1432
672,366	1450
672,629	1459
672,891	1428
673,154	1441
673,416	1450
673,678	1451
673,941	1475
674,203	1443
674,465	1456
674,727	1454
674,989	1441
675,251	1464
675,513	1446
675,775	1439
676,037	1444
676,298	1460
676,56	1470
676,822	1458
677,083	1456
677,345	1447
677,606	1474
677,867	1469
678,129	1475
678,39	1467
678,651	1486
678,912	1462
679,173	1463
679,434	1432
679,695	1471
679,956	1466
680,217	1493
680,478	1457
680,738	1473
680,999	1477
681,26	1476
681,52	1472
681,781	1464
682,041	1472
682,301	1493
682,562	1457
682,822	1481
683,082	1492
683,342	1476
683,602	1480
683,862	1468
684,122	1474
684,382	1488
684,642	1474
684,902	1465
685,161	1471
685,421	1479
685,681	1457
685,94	1477
686,2	1481
686,459	1469
686,718	1472
686,978	1452
687,237	1458
687,496	1475
687,755	1462
688,014	1474
688,273	1468
688,532	1477
688,791	1475
689,05	1487
689,309	1496
689,567	1470
689,826	1486
690,085	1480
690,343	1466
690,601	1492
690,86	1468
691,118	1467
691,377	1517
691,635	1469
691,893	1464
692,151	1466
692,409	1482
692,667	1469
692,925	1472
693,183	1462
693,441	1465
693,699	1458
693,956	1476
694,214	1461
694,471	1475
694,729	1479
694,986	1462
695,244	1453
695,501	1491
695,759	1455
696,016	1476
696,273	1470
696,53	1487
696,787	1465
697,044	1479
697,301	1463
697,558	1463
697,815	1468
698,072	1470
698,328	1458
698,585	1484
698,842	1456
699,098	1464
699,355	1461
699,611	1482
699,867	1466
700,124	1459
700,38	1464
700,636	1470
700,892	1448
701,148	1460
701,404	1461
701,66	1451
701,916	1450
702,172	1460
702,428	1475
702,684	1454
702,939	1452
703,195	1472
703,45	1458
703,706	1453
703,961	1464
704,217	1450
704,472	1471
704,727	1448
704,982	1452
705,238	1470
705,493	1463
705,748	1454
706,003	1443
706,258	1449
706,513	1463
706,767	1457
707,022	1461
707,277	1467
707,531	1466
707,786	1467
708,041	1456
708,295	1457
708,549	1455
708,804	1513
709,058	1466
709,312	1477
709,566	1478
709,821	1452
710,075	1472
710,329	1461
710,583	1462
710,836	1489
711,09	1487
711,344	1472
711,598	1489
711,851	1471
712,105	1483
712,359	1490
712,612	1486
712,865	1503
713,119	1507
713,372	1489
713,625	1479
713,879	1476
714,132	1482
714,385	1497
714,638	1486
714,891	1466
715,144	1506
715,397	1504
715,649	1489
715,902	1470
716,155	1486
716,408	1481
716,66	1506
716,913	1489
717,165	1484
717,417	1470
717,67	1476
717,922	1470
718,174	1466
718,427	1469
718,679	1471
718,931	1460
719,183	1475
719,435	1482
719,687	1461
719,938	1467
720,19	1489
720,442	1436
720,694	1457
720,945	1464
721,197	1447
721,448	1459
721,7	1441
721,951	1445
722,202	1459
722,454	1450
722,705	1453
722,956	1435
723,207	1437
723,458	1442
723,709	1462
723,96	1460
724,211	1434
724,462	1458
724,713	1457
724,963	1443
725,214	1441
725,465	1463
725,715	1438
725,966	1438
726,216	1439
726,466	1432
726,717	1448
726,967	1450
727,217	1444
727,467	1459
727,717	1464
727,968	1447
728,217	1460
728,467	1441
728,717	1471
728,967	1445
729,217	1468
729,467	1463
729,716	1454
729,966	1472
730,215	1443
730,465	1449
730,714	1462
730,964	1454
731,213	1448
731,462	1454
731,711	1465
731,961	1466
732,21	1484
732,459	1484
732,708	1473
732,957	1460
733,205	1482
733,454	1468
733,703	1471
733,952	1468
734,2	1470
734,449	1454
734,697	1464
734,946	1464
735,194	1460
735,443	1471
735,691	1449
735,939	1452
736,187	1437
736,436	1449
736,684	1435
736,932	1445
737,18	1442
737,428	1439
737,675	1450
737,923	1451
738,171	1446
738,419	1445
738,666	1444
738,914	1450
739,162	1458
739,409	1462
739,656	1454
739,904	1453
740,151	1456
740,398	1448
740,646	1463
740,893	1446
741,14	1454
741,387	1455
741,634	1454
741,881	1440
742,128	1441
742,374	1418
742,621	1459
742,868	1444
743,115	1456
743,361	1449
743,608	1432
743,854	1442
744,101	1424
744,347	1464
744,593	1429
744,84	1434
745,086	1437
745,332	1433
745,578	1424
745,824	1433
746,07	1435
746,316	1449
746,562	1431
746,808	1435
747,054	1437
747,299	1432
747,545	1452
747,791	1429
748,036	1443
748,282	1450
748,527	1430
748,773	1434
749,018	1456
749,263	1461
749,508	1453
749,754	1440
749,999	1461
750,244	1446
750,489	1441
750,734	1442
750,979	1452
751,224	1439
751,468	1439
751,713	1437
751,958	1447
752,202	1444
752,447	1450
752,691	1456
752,936	1448
753,18	1438
753,425	1449
753,669	1435
753,913	1434
754,158	1444
754,402	1435
754,646	1436
754,89	1443
755,134	1433
755,378	1445
755,622	1446
755,865	1450
756,109	1426
756,353	1448
756,597	1451
756,84	1450
757,084	1425
757,327	1430
757,571	1446
757,814	1442
758,057	1423
758,301	1442
758,544	1438
758,787	1427
759,03	1426
759,273	1427
759,516	1421
759,759	1432
760,002	1436
760,245	1430
760,488	1416
760,731	1439
760,973	1422
761,216	1423
761,458	1432
761,701	1435
761,944	1404
762,186	1412
762,428	1414
762,671	1440
762,913	1420
763,155	1424
763,397	1413
763,639	1444
763,881	1426
764,123	1463
764,365	1461
764,607	1454
764,849	1485
765,091	1473
765,333	1482
765,574	1458
765,816	1458
766,057	1439
766,299	1436
766,54	1428
766,782	1434
767,023	1442
767,265	1421
767,506	1449
767,747	1442
767,988	1414
768,229	1425
768,47	1418
768,711	1438
768,952	1419
769,193	1421
769,434	1420
769,675	1431
769,915	1423
770,156	1410
770,397	1432
770,637	1406
770,878	1431
771,118	1425
771,359	1425
771,599	1411
771,839	1427
772,08	1425
772,32	1423
772,56	1427
772,8	1421
773,04	1433
773,28	1415
773,52	1432
773,76	1427
774	1420
774,239	1428
774,479	1425
774,719	1428
774,958	1428
775,198	1416
775,437	1416
775,677	1434
775,916	1427
776,156	1414
776,395	1412
776,634	1423
776,873	1434
777,113	1430
777,352	1400
777,591	1424
777,83	1422
778,069	1405
778,308	1419
778,546	1430
778,785	1407
779,024	1421
779,263	1430
779,501	1405
779,74	1398
779,978	1422
780,217	1419
780,455	1413
780,693	1420
780,932	1424
781,17	1399
781,408	1420
781,646	1412
781,884	1417
782,123	1412
782,361	1413
782,598	1417
782,836	1421
783,074	1405
783,312	1422
783,55	1420
783,787	1424
784,025	1432
784,263	1399
784,5	1410
784,738	1432
784,975	1408
785,212	1415
785,45	1416
785,687	1408
785,924	1395
786,161	1406
786,399	1416
786,636	1402
786,873	1403
787,11	1401
787,346	1422
787,583	1422
787,82	1418
788,057	1428
788,294	1398
788,53	1433
788,767	1412
789,003	1410
789,24	1424
789,476	1406
789,713	1424
789,949	1417
790,185	1424
790,422	1416
790,658	1426
790,894	1410
791,13	1416
791,366	1432
791,602	1407
791,838	1413
792,074	1402
792,31	1436
792,545	1403
792,781	1403
793,017	1411
793,252	1417
793,488	1404
793,724	1402
793,959	1433
794,194	1419
794,43	1426
794,665	1417
794,9	1403
795,136	1412
795,371	1413
795,606	1415
795,841	1412
796,076	1416
796,311	1416
796,546	1429
796,781	1402
797,015	1406
797,25	1409
797,485	1411
797,72	1411
797,954	1407
798,189	1416
798,423	1411
798,658	1457
798,892	1425
799,126	1410
799,361	1410
799,595	1419
799,829	1411
800,063	1422
800,297	1418
800,531	1406
800,765	1430
800,999	1415
801,233	1408
801,467	1397
801,701	1420
801,935	1394
802,168	1417
802,402	1405
802,636	1407
802,869	1399
803,103	1392
803,336	1399
803,569	1400
803,803	1398
804,036	1397
804,269	1394
804,502	1388
804,736	1397
804,969	1392
805,202	1402
805,435	1409
805,668	1411
805,901	1402
806,133	1421
806,366	1397
806,599	1400
806,832	1379
807,064	1325
807,297	1321
807,529	1320
807,762	1318
